08:09:19,555 25.11.2013	

time [s];Voltage over 220Ohm;Current in[mA];Numbers of errors on data
0,000;0,497;49,735;49,000;56,000;51,000
0,255;0,469;46,939;49,000;56,000;51,000
0,510;0,494;49,375;49,000;56,000;51,000
0,765;0,498;49,797;49,000;56,000;51,000
1,020;0,522;52,232;49,000;56,000;51,000
1,275;0,525;52,485;49,000;56,000;51,000
1,530;0,498;49,768;49,000;56,000;51,000
1,785;0,482;48,207;49,000;56,000;51,000
2,040;0,495;49,510;49,000;56,000;51,000
2,295;0,482;48,164;49,000;56,000;51,000
2,797;0,467;46,720;49,000;56,000;51,000
3,052;0,488;48,827;49,000;56,000;51,000
3,307;0,488;48,817;49,000;56,000;51,000
3,562;0,487;48,654;49,000;56,000;51,000
3,817;0,504;50,437;49,000;56,000;51,000
4,072;0,500;49,988;49,000;56,000;51,000
4,327;0,504;50,378;49,000;56,000;51,000
4,582;0,498;49,827;49,000;56,000;51,000
4,837;0,482;48,243;49,000;56,000;51,000
5,092;0,486;48,578;49,000;56,000;51,000
5,619;0,491;49,146;49,000;56,000;51,000
5,874;0,479;47,862;49,000;56,000;51,000
6,129;0,505;50,461;49,000;56,000;51,000
6,384;0,517;51,715;49,000;56,000;51,000
6,639;0,482;48,182;49,000;56,000;51,000
6,894;0,496;49,589;49,000;56,000;51,000
7,149;0,495;49,527;49,000;56,000;51,000
7,404;0,491;49,136;49,000;56,000;51,000
7,659;0,491;49,076;49,000;56,000;51,000
7,914;0,494;49,433;49,000;56,000;51,000
8,456;0,498;49,820;49,000;56,000;51,000
8,711;0,479;47,875;49,000;56,000;51,000
8,967;0,489;48,885;49,000;56,000;51,000
9,222;0,478;47,819;49,000;56,000;51,000
9,477;0,478;47,819;49,000;56,000;51,000
9,732;0,497;49,700;49,000;56,000;51,000
9,987;0,484;48,402;49,000;56,000;51,000
10,242;0,500;50,039;49,000;56,000;51,000
10,497;0,517;51,740;49,000;56,000;51,000
10,752;0,496;49,593;49,000;56,000;51,000
11,279;0,476;47,617;49,000;56,000;51,000
11,534;0,472;47,179;49,000;56,000;51,000
11,789;0,508;50,791;49,000;56,000;51,000
12,044;0,474;47,403;49,000;56,000;51,000
12,299;0,478;47,838;49,000;56,000;51,000
12,554;0,498;49,758;49,000;56,000;51,000
12,809;0,485;48,494;49,000;56,000;51,000
13,064;0,503;50,271;49,000;56,000;51,000
13,319;0,496;49,644;49,000;56,000;51,000
13,607;0,494;49,449;49,000;56,000;51,000
14,118;0,486;48,625;49,000;56,000;51,000
14,373;0,508;50,799;49,000;56,000;51,000
14,628;0,506;50,646;49,000;56,000;51,000
14,939;0,502;50,207;49,000;56,000;51,000
15,274;0,497;49,672;49,000;56,000;51,000
15,606;0,476;47,562;49,000;56,000;51,000
15,938;0,498;49,849;49,000;56,000;51,000
16,273;0,499;49,910;49,000;56,000;51,000
16,607;0,505;50,494;49,000;56,000;51,000
16,940;0,475;47,456;49,000;56,000;51,000
17,354;0,491;49,098;49,000;56,000;51,000
17,609;0,491;49,116;49,000;56,000;51,000
17,939;0,489;48,946;49,000;56,000;51,000
18,272;0,494;49,428;49,000;56,000;51,000
18,607;0,488;48,793;49,000;56,000;51,000
18,939;0,489;48,854;49,000;56,000;51,000
19,326;0,483;48,330;49,000;56,000;51,000
19,605;0,489;48,945;49,000;56,000;51,000
19,940;0,506;50,642;49,000;56,000;51,000
20,272;0,478;47,768;49,000;56,000;51,000
20,606;0,474;47,425;49,000;56,000;51,000
20,939;0,493;49,299;49,000;56,000;51,000
21,272;0,493;49,258;49,000;56,000;51,000
21,605;0,501;50,124;49,000;56,000;51,000
21,938;0,500;50,023;49,000;56,000;51,000
22,272;0,485;48,503;49,000;56,000;51,000
22,606;0,483;48,280;49,000;56,000;51,000
22,939;0,492;49,152;49,000;56,000;51,000
23,272;0,480;48,033;49,000;56,000;51,000
23,606;0,502;50,210;49,000;56,000;51,000
23,939;0,489;48,931;49,000;56,000;51,000
24,272;0,496;49,616;49,000;56,000;51,000
24,605;0,491;49,067;49,000;56,000;51,000
24,939;0,449;44,918;49,000;56,000;51,000
25,271;0,483;48,333;49,000;56,000;51,000
25,605;0,484;48,424;49,000;56,000;51,000
25,939;0,508;50,774;49,000;56,000;51,000
26,272;0,480;48,014;49,000;56,000;51,000
26,606;0,496;49,576;49,000;56,000;51,000
26,940;0,486;48,627;49,000;56,000;51,000
27,462;0,524;52,436;49,000;56,000;51,000
27,717;0,467;46,747;49,000;56,000;51,000
27,972;0,506;50,557;49,000;56,000;51,000
28,272;0,486;48,641;49,000;56,000;51,000
28,606;0,510;50,959;49,000;56,000;51,000
28,939;0,520;51,984;49,000;56,000;51,000
29,272;0,489;48,868;49,000;56,000;51,000
29,605;0,480;48,046;49,000;56,000;51,000
29,940;0,483;48,302;49,000;56,000;51,000
30,272;0,497;49,734;49,000;56,000;51,000
30,699;0,495;49,536;49,000;56,000;51,000
30,954;0,507;50,743;49,000;56,000;51,000
31,273;0,499;49,892;49,000;56,000;51,000
31,606;0,406;40,551;49,000;56,000;51,000
31,939;0,043;4,296;49,000;56,000;51,000
32,272;0,040;3,993;49,000;56,000;51,000
32,606;0,034;3,432;49,000;56,000;51,000
32,939;0,034;3,382;49,000;56,000;51,000
33,272;0,037;3,689;49,000;56,000;51,000
33,605;0,043;4,261;50,000;52,000;49,000
33,939;0,046;4,641;50,000;52,000;49,000
34,273;0,049;4,877;50,000;52,000;49,000
34,605;0,035;3,525;50,000;52,000;49,000
34,938;0,041;4,104;50,000;52,000;49,000
35,272;0,045;4,454;50,000;52,000;49,000
35,606;0,033;3,287;50,000;52,000;49,000
35,938;0,040;4,003;50,000;52,000;49,000
36,271;0,043;4,297;50,000;52,000;49,000
36,605;0,036;3,639;50,000;52,000;49,000
36,939;0,042;4,191;51,000;56,000;0,000
37,271;0,035;3,490;51,000;56,000;0,000
37,606;0,039;3,930;51,000;56,000;0,000
37,937;0,036;3,574;51,000;56,000;0,000
38,271;0,038;3,781;51,000;56,000;0,000
38,604;0,041;4,088;51,000;56,000;0,000
38,938;0,036;3,592;51,000;56,000;0,000
39,270;0,356;35,597;51,000;56,000;0,000
39,605;0,295;29,478;51,000;56,000;0,000
39,938;0,361;36,104;51,000;56,000;0,000
40,270;0,271;27,131;49,000;57,000;53,000
40,807;0,322;32,231;49,000;57,000;53,000
41,062;0,465;46,547;49,000;57,000;53,000
41,317;0,460;46,004;49,000;57,000;53,000
41,603;0,482;48,159;49,000;57,000;53,000
41,937;0,476;47,647;49,000;57,000;53,000
42,272;0,500;50,012;49,000;57,000;53,000
42,604;0,479;47,902;49,000;57,000;53,000
42,936;0,479;47,871;49,000;57,000;53,000
43,270;0,493;49,348;49,000;57,000;53,000
43,604;0,489;48,917;49,000;48,000;50,000
44,045;0,502;50,237;49,000;48,000;50,000
44,300;0,492;49,161;49,000;48,000;50,000
44,606;0,474;47,358;49,000;48,000;50,000
44,938;0,486;48,640;49,000;48,000;50,000
45,273;0,499;49,889;49,000;48,000;50,000
45,606;0,500;50,036;49,000;48,000;50,000
45,939;0,492;49,186;49,000;48,000;50,000
46,272;0,491;49,066;49,000;48,000;50,000
46,606;0,492;49,164;49,000;48,000;50,000
46,939;0,498;49,847;49,000;48,000;50,000
47,282;0,511;51,090;49,000;48,000;50,000
47,605;0,494;49,432;49,000;48,000;50,000
47,938;0,467;46,735;49,000;48,000;50,000
48,272;0,493;49,311;49,000;48,000;50,000
48,605;0,494;49,446;49,000;48,000;50,000
48,939;0,503;50,337;49,000;48,000;50,000
49,271;0,484;48,364;49,000;48,000;50,000
49,604;0,491;49,052;49,000;48,000;50,000
49,939;0,505;50,537;49,000;48,000;50,000
50,272;0,480;48,025;49,000;48,000;50,000
50,604;0,507;50,661;49,000;48,000;50,000
50,938;0,493;49,341;49,000;48,000;50,000
51,271;0,493;49,320;49,000;48,000;50,000
51,604;0,508;50,754;49,000;48,000;50,000
51,938;0,489;48,944;49,000;48,000;50,000
52,271;0,512;51,238;49,000;48,000;50,000
52,605;0,489;48,892;49,000;48,000;50,000
52,937;0,490;49,030;49,000;48,000;50,000
53,271;0,485;48,489;49,000;48,000;50,000
53,604;0,467;46,667;49,000;48,000;50,000
54,153;0,500;50,024;49,000;48,000;50,000
54,408;0,465;46,498;49,000;48,000;50,000
54,663;0,486;48,581;49,000;48,000;50,000
54,937;0,488;48,837;49,000;48,000;50,000
55,272;0,508;50,831;49,000;48,000;50,000
55,605;0,490;49,024;49,000;48,000;50,000
55,937;0,471;47,114;49,000;48,000;50,000
56,271;0,504;50,418;49,000;48,000;50,000
56,604;0,495;49,518;49,000;48,000;50,000
56,937;0,478;47,793;49,000;48,000;50,000
57,390;0,480;48,002;49,000;48,000;50,000
57,645;0,500;49,958;49,000;48,000;50,000
57,937;0,482;48,152;49,000;48,000;50,000
58,271;0,480;48,009;49,000;48,000;50,000
58,604;0,470;47,034;49,000;48,000;50,000
58,937;0,488;48,759;49,000;48,000;50,000
59,270;0,502;50,192;49,000;48,000;50,000
59,605;0,482;48,247;49,000;48,000;50,000
59,937;0,496;49,643;49,000;48,000;50,000
60,270;0,494;49,350;49,000;48,000;50,000
60,627;0,490;49,031;49,000;48,000;50,000
60,937;0,514;51,410;49,000;48,000;50,000
61,271;0,492;49,169;49,000;48,000;50,000
61,604;0,494;49,434;49,000;48,000;50,000
61,939;0,495;49,471;49,000;48,000;50,000
62,271;0,478;47,792;49,000;48,000;50,000
62,605;0,492;49,150;49,000;48,000;50,000
62,938;0,486;48,582;49,000;48,000;50,000
63,271;0,510;50,977;49,000;48,000;50,000
63,604;0,474;47,384;49,000;48,000;50,000
63,937;0,492;49,231;49,000;48,000;50,000
64,271;0,476;47,637;49,000;48,000;50,000
64,605;0,477;47,672;49,000;48,000;50,000
64,937;0,490;48,991;49,000;48,000;50,000
65,271;0,480;48,042;49,000;48,000;50,000
65,605;0,485;48,472;49,000;48,000;50,000
65,938;0,493;49,341;49,000;48,000;50,000
66,272;0,541;54,080;49,000;48,000;50,000
66,605;0,500;50,049;49,000;48,000;50,000
66,937;0,469;46,889;49,000;48,000;50,000
67,499;0,501;50,113;49,000;48,000;50,000
67,754;0,493;49,294;49,000;48,000;50,000
68,009;0,487;48,715;49,000;48,000;50,000
68,271;0,513;51,270;49,000;48,000;50,000
68,603;0,496;49,592;49,000;48,000;50,000
68,937;0,497;49,680;49,000;48,000;50,000
69,270;0,514;51,430;49,000;48,000;50,000
69,605;0,485;48,485;49,000;48,000;50,000
69,937;0,474;47,396;49,000;48,000;50,000
70,270;0,498;49,820;49,000;48,000;50,000
70,736;0,465;46,506;49,000;48,000;50,000
70,991;0,505;50,463;49,000;48,000;50,000
71,270;0,480;48,040;49,000;48,000;50,000
71,604;0,498;49,831;49,000;48,000;50,000
71,937;0,485;48,500;49,000;48,000;50,000
72,270;0,507;50,744;49,000;48,000;50,000
72,603;0,501;50,095;49,000;48,000;50,000
72,937;0,484;48,386;49,000;48,000;50,000
73,270;0,488;48,786;49,000;48,000;50,000
73,604;0,486;48,611;49,000;48,000;50,000
73,973;0,491;49,058;49,000;48,000;50,000
74,270;0,485;48,498;49,000;48,000;50,000
74,603;0,486;48,556;49,000;48,000;50,000
74,936;0,494;49,395;49,000;48,000;50,000
75,270;0,478;47,844;49,000;48,000;50,000
75,603;0,488;48,751;49,000;48,000;50,000
75,937;0,502;50,189;49,000;48,000;50,000
76,271;0,493;49,324;49,000;48,000;50,000
76,603;0,500;49,951;49,000;48,000;50,000
76,936;0,492;49,165;49,000;48,000;50,000
77,270;0,491;49,110;49,000;48,000;50,000
77,604;0,489;48,938;49,000;48,000;50,000
77,936;0,503;50,268;49,000;48,000;50,000
78,269;0,490;48,999;49,000;48,000;50,000
78,604;0,472;47,233;49,000;48,000;50,000
78,937;0,494;49,362;49,000;48,000;50,000
79,271;0,483;48,341;49,000;48,000;50,000
79,604;0,514;51,396;49,000;48,000;50,000
79,938;0,476;47,632;49,000;48,000;50,000
80,271;0,495;49,479;49,000;48,000;50,000
80,845;0,492;49,228;49,000;48,000;50,000
81,100;0,480;48,010;49,000;48,000;50,000
81,355;0,472;47,203;49,000;48,000;50,000
81,610;0,487;48,709;49,000;48,000;50,000
81,937;0,481;48,062;49,000;48,000;50,000
82,271;0,486;48,587;49,000;48,000;50,000
82,604;0,486;48,615;49,000;48,000;50,000
82,937;0,479;47,865;49,000;48,000;50,000
83,270;0,491;49,060;49,000;48,000;50,000
83,603;0,497;49,699;49,000;48,000;50,000
84,082;0,514;51,370;49,000;48,000;50,000
84,337;0,500;50,006;49,000;48,000;50,000
84,604;0,481;48,064;49,000;48,000;50,000
84,936;0,496;49,573;49,000;48,000;50,000
85,270;0,485;48,549;49,000;48,000;50,000
85,603;0,500;49,961;49,000;48,000;50,000
85,937;0,489;48,876;49,000;48,000;50,000
86,269;0,506;50,579;49,000;48,000;50,000
86,603;0,488;48,789;49,000;48,000;50,000
86,937;0,491;49,079;49,000;48,000;50,000
87,318;0,493;49,323;49,000;48,000;50,000


